File: Yapped/bin/x64/Release/res/GR/Data/Great-Rune/Magic.csv
Row ID;Row Name;Disable Param - Network Test;Dialog Message ID;Ignore Usage Restriction - SpEffect ID;Sort ID;Requirement: ARC;AI Interrupt Type;FP Consumption - Default;Stamina Consumption - Default;Icon ID;Behavior ID;Material Item ID;Replace Magic ID;Number of Uses;Reference Category [1];Dexterity over Start Value;Reference Category [2];Slot Usage;Requirement: INT;Requirement: FTH;Casting Speed - DEX Start Range;Casting Speed - DEX End Range;Magic School Type;Reference Category [3];SpEffect Category;Animation Category;Open Menu Type;Reference Category [4];Has SpEffect Type;Replace Category;Use Limit Category;Vow Type [0];Vow Type [1];Vow Type [2];Vow Type [3];Vow Type [4];Vow Type [5];Vow Type [6];Vow Type [7];Allow in Multiplayer;Allow only in Multiplayer;Is Weapon Enchantment;Is Shield Enchantment;Enable Live;Enable Gray;Enable White;Enable Black;Disable Offline;Cast Resonance Magic;Is Toughness Perfomed if Poise is Initial Value;Is Blocked by Warp Forbidden Effect;Usable while Riding;Not Usable while Riding;Usable in No Attack Region;Blank;Vow Type [8];Vow Type [9];Vow Type [10];Vow Type [11];Vow Type [12];Vow Type [13];Vow Type [14];Vow Type [15];SFX ID - Cast;SFX ID - Fire;SFX ID - Effect;Toughness Correction;Replacement Status Type;Replacement Status [1];Replacement Status [2];Replacement Status [3];Replacement Status [4];Reference Category [5];Poise Consumption;Replacement Magic ID [1];Replacement Magic ID [2];Replacement Magic ID [3];Replacement Magic ID [4];FP Consumption - Charged;Stamina Consumption - Charged;Create Limit Group ID;Reference Category [6];Conditional Weapon Effect 1;Conditional Weapon Effect 2;Reference Category [7];Reference Category [8];Reference Category [9];Reference Category [10];Reference ID [1];Reference ID [2];Reference ID [3];AI Usage Judgment ID;Reference ID [4];Reference ID [5];Reference ID [6];Reference ID [7];Reference ID [8];Reference ID [9];Reference ID [10];Consumption Type [1];Consumption Type [2];Consumption Type [3];Consumption Type [4];Consumption Type [5];Consumption Type [6];Consumption Type [7];Consumption Type [8];Consumption Type [9];Consumption Type [10];FP Consumption Loop - For Menu Display
4000;[Sorcery] Glintstone Pebble;False;0;-1;4000;0;0;7;20;4000;0;-1;-1;-1;1;99;1;1;10;0;10;70;0;0;3;1;0;0;0;0;0;True;True;True;True;True;True;True;True;True;False;False;False;True;True;True;True;False;False;False;False;True;False;False;False;True;True;True;True;True;True;True;True;523000;523001;510010;0;3;-1;-1;-1;-1;0;0;-1;-1;-1;-1;0;0;0;0;0;0;0;0;0;0;10400000;10400099;-1;10000100;-1;-1;-1;-1;-1;-1;-1;0;2;0;0;0;0;0;0;0;0;-1
4001;[Sorcery] Great Glintstone Shard;True;0;-1;4000;0;0;12;26;4001;0;-1;-1;-1;1;99;1;1;16;0;10;70;0;0;3;1;0;0;0;0;0;True;True;True;True;True;True;True;True;True;False;False;False;True;True;True;True;False;False;False;False;True;False;False;False;True;True;True;True;True;True;True;True;523000;523001;510020;0;3;-1;-1;-1;-1;0;0;-1;-1;-1;-1;0;0;0;0;0;0;0;0;0;0;10400100;10400199;-1;10000100;-1;-1;-1;-1;-1;-1;-1;0;2;0;0;0;0;0;0;0;0;-1
4010;[Sorcery] Swift Glintstone Shard;True;0;-1;4010;0;0;5;9;4130;0;-1;-1;-1;1;99;0;1;12;0;10;70;0;0;3;79;0;0;0;0;0;True;True;True;True;True;True;True;True;True;False;False;False;True;True;True;True;False;False;False;False;True;False;False;False;True;True;True;True;True;True;True;True;522000;522001;510000;0;3;-1;-1;-1;-1;0;0;-1;-1;-1;-1;0;0;0;0;0;0;0;0;0;0;10401000;-1;-1;10000100;-1;-1;-1;-1;-1;-1;-1;0;0;0;0;0;0;0;0;0;0;-1
4020;[Sorcery] Glintstone Cometshard;True;0;-1;4020;0;0;19;30;4006;0;-1;-1;-1;1;99;1;1;36;0;10;70;0;0;3;2;0;0;0;0;0;True;True;True;True;True;True;True;True;True;False;False;False;True;True;True;True;False;False;False;False;True;False;False;False;True;True;True;True;True;True;True;True;523060;523061;523064;0;3;-1;-1;-1;-1;0;0;-1;-1;-1;-1;19;39;0;0;6;0;0;0;0;0;10402000;10402050;-1;10000200;-1;-1;-1;-1;-1;-1;-1;0;1;0;0;0;0;0;0;0;0;-1
4021;[Sorcery] Comet;True;0;-1;4021;0;0;26;35;4007;0;-1;-1;-1;1;99;1;1;52;0;10;70;0;0;3;2;0;0;0;0;0;True;True;True;True;True;True;True;True;True;False;False;False;True;True;True;True;False;False;False;False;True;False;False;False;True;True;True;True;True;True;True;True;523070;523071;523064;0;3;-1;-1;-1;-1;0;0;-1;-1;-1;-1;26;46;0;0;6;0;0;0;0;0;10402100;10402150;-1;10000200;-1;-1;-1;-1;-1;-1;-1;0;1;0;0;0;0;0;0;0;0;-1
4030;[Sorcery] Shard Spiral;True;0;-1;4030;0;0;14;28;4007;0;-1;-1;-1;1;99;1;1;27;0;10;70;0;0;3;2;0;0;0;0;0;True;True;True;True;True;True;True;True;True;False;False;False;True;True;True;True;False;False;False;False;True;False;False;False;True;True;True;True;True;True;True;True;523070;523071;523064;0;3;-1;-1;-1;-1;0;0;-1;-1;-1;-1;14;36;0;0;0;0;0;0;0;0;10403000;10403050;-1;10000000;-1;-1;-1;-1;-1;-1;-1;0;1;0;0;0;0;0;0;0;0;-1
4040;[Sorcery] Glintstone Stars;False;0;-1;4090;0;0;14;21;4060;0;-1;-1;-1;1;99;1;1;12;0;10;70;0;1;3;107;0;0;0;0;0;True;True;True;True;True;True;True;True;True;False;False;False;True;True;True;True;False;False;False;False;True;False;False;False;True;True;True;True;True;True;True;True;523850;523851;523856;0;3;-1;-1;-1;-1;0;0;-1;-1;-1;-1;14;27;0;0;7;0;0;0;0;0;10404000;10404050;10404099;10000200;-1;-1;-1;-1;-1;-1;-1;0;1;2;0;0;0;0;0;0;0;-1
4050;[Sorcery] Star Shower;True;0;-1;4090;0;0;23;26;4060;0;-1;-1;-1;1;99;1;1;24;0;10;70;0;1;3;107;0;0;0;0;0;True;True;True;True;True;True;True;True;True;False;False;False;True;True;True;True;False;False;False;False;True;False;False;False;True;True;True;True;True;True;True;True;523850;523851;523859;0;3;-1;-1;-1;-1;0;0;-1;-1;-1;-1;23;34;0;0;7;0;0;0;0;0;10405000;10405050;10404099;10000200;-1;-1;-1;-1;-1;-1;-1;0;1;2;0;0;0;0;0;0;0;-1
4060;[Sorcery] Crystal Barrage;True;0;-1;4080;0;0;14;26;4059;0;-1;-1;-1;1;99;1;1;23;0;10;70;0;1;3;4;0;1;0;0;0;True;True;True;True;True;True;True;True;True;False;False;False;True;True;True;True;False;False;False;False;True;False;False;False;True;True;True;True;True;True;True;True;523720;523721;-1;0;3;-1;-1;-1;-1;0;0;-1;-1;-1;-1;2;0;0;0;0;0;0;0;0;0;10406000;10999999;10406099;10000200;10406001;-1;-1;-1;-1;-1;-1;2;0;1;2;0;0;0;0;0;0;2
4070;[Sorcery] Glintstone Arc;False;0;-1;4000;0;0;10;18;4000;0;-1;-1;-1;1;99;1;1;13;0;10;70;0;0;3;16;0;0;0;0;0;True;True;True;True;True;True;True;True;True;False;False;False;True;True;True;True;False;False;False;False;True;False;False;False;True;True;True;True;True;True;True;True;530150;530151;-1;0;3;-1;-1;-1;-1;0;0;-1;-1;-1;-1;0;0;0;0;0;0;0;0;0;0;10407000;10407099;-1;10000100;-1;-1;-1;-1;-1;-1;-1;0;2;0;0;0;0;0;0;0;0;-1
4080;[Sorcery] Cannon of Haima;True;0;-1;4000;0;0;45;42;4000;0;-1;-1;-1;1;99;0;1;25;0;10;70;0;0;3;92;0;1;0;0;0;True;True;True;True;True;True;True;True;True;False;False;False;True;True;True;True;False;False;False;False;True;False;False;False;True;True;True;True;True;True;True;True;-1;-1;-1;0;3;-1;-1;-1;-1;0;0;-1;-1;-1;-1;45;55;0;0;0;0;0;0;0;0;10408000;-1;-1;10000000;10408050;-1;-1;-1;-1;-1;-1;0;0;0;1;0;0;0;0;0;0;-1
4090;[Sorcery] Crystal Burst;True;0;-1;4070;0;0;14;9;4000;0;-1;-1;-1;1;99;1;1;18;0;10;70;0;1;3;113;0;1;0;0;0;True;True;True;True;True;True;True;True;True;False;False;False;True;True;True;True;False;False;False;False;True;False;False;False;True;True;True;True;True;True;True;True;523930;523931;523934;0;3;-1;-1;-1;-1;1;0;-1;-1;-1;-1;14;12;0;1;0;0;0;0;0;0;10409000;10409001;10409002;10000000;10409050;10409051;10409052;-1;-1;-1;-1;0;2;2;1;2;2;0;0;0;0;-1
4100;[Sorcery] Shatter Earth;True;0;-1;4200;0;0;12;22;4000;0;-1;-1;-1;1;99;1;1;15;0;10;70;0;1;3;56;0;0;0;0;0;True;True;True;True;True;True;True;True;True;False;False;False;True;True;True;True;False;False;False;False;False;False;False;False;True;True;True;True;True;True;True;True;523740;523741;523742;0;3;-1;-1;-1;-1;0;0;-1;-1;-1;-1;0;0;0;0;4;0;0;0;0;0;10410000;10410001;10410002;12000030;41003;41004;-1;-1;-1;-1;-1;0;0;2;2;2;0;0;0;0;0;-1
4110;[Sorcery] Rock Blaster;True;0;-1;4200;0;0;25;35;4000;0;-1;-1;-1;1;99;1;1;21;0;10;70;0;1;3;57;0;1;0;0;0;True;True;True;True;True;True;True;True;True;False;False;False;True;True;True;True;False;False;False;False;False;False;False;False;True;True;True;True;True;True;True;True;523740;523741;-1;0;3;-1;-1;-1;-1;1;0;-1;-1;-1;-1;5;0;0;1;4;0;1;1;0;0;10411010;10411000;10411012;12000030;10999999;10411010;10411012;10411014;10411014;-1;-1;1;2;1;0;2;2;1;2;0;0;5
4120;[Sorcery] Gavel of Haima;True;0;-1;4200;0;0;25;46;4061;0;-1;-1;-1;0;99;0;1;25;0;10;70;0;1;3;78;0;1;0;0;0;True;True;True;True;True;True;True;True;True;False;False;False;True;True;True;True;False;False;False;False;False;False;False;False;True;True;True;True;True;True;True;True;523770;523771;523772;0;3;-1;-1;-1;-1;0;0;-1;-1;-1;-1;0;0;0;0;0;0;0;0;0;0;41200;41201;10412000;12000000;10412001;-1;-1;-1;-1;-1;-1;0;0;2;2;0;0;0;0;0;0;-1
4130;[Sorcery] Terra Magicus;True;0;-1;4640;0;0;20;12;4000;0;-1;-1;-1;1;99;0;1;20;0;10;70;0;0;3;13;0;0;0;0;0;True;True;True;True;True;True;True;True;True;False;False;False;True;True;True;True;False;False;False;False;True;False;True;False;True;True;True;True;True;True;True;True;523810;523811;-1;0;3;-1;-1;-1;-1;0;0;-1;-1;-1;-1;0;0;0;0;0;0;0;0;0;0;10413000;-1;-1;30000000;-1;-1;-1;-1;-1;-1;-1;0;0;0;0;0;0;0;0;0;0;-1
4140;[Sorcery] Starlight;True;0;-1;4630;0;0;12;5;4000;0;-1;-1;-1;2;99;0;1;15;0;10;70;0;0;3;13;0;0;0;0;0;True;True;True;True;True;True;True;True;True;False;False;False;True;True;True;True;False;False;False;False;True;False;True;False;True;True;True;True;True;True;True;True;523500;523501;-1;0;3;-1;-1;-1;-1;0;0;-1;-1;-1;-1;0;0;0;0;0;0;0;0;0;0;1414000;-1;-1;-1;-1;-1;-1;-1;-1;-1;-1;0;0;0;0;0;0;0;0;0;0;-1
4200;[Sorcery] Comet Azur;True;0;-1;4110;0;0;40;34;4104;0;-1;-1;-1;1;99;1;3;60;0;10;70;0;1;3;7;0;1;0;0;0;True;True;True;True;True;True;True;True;True;False;False;False;True;True;True;True;False;False;False;False;True;False;False;False;True;True;True;True;True;True;True;True;526250;-1;526255;0;3;-1;-1;-1;-1;1;0;-1;-1;-1;-1;10;0;0;1;14;0;0;0;0;0;10420000;10420002;10420003;10000200;10420004;10420002;10420001;-1;-1;-1;-1;2;1;2;0;2;2;0;0;0;0;10
4210;[Sorcery] Founding Rain of Stars;True;0;-1;4100;0;0;32;37;4060;0;-1;-1;-1;1;99;1;2;52;0;10;70;0;1;3;124;0;1;0;0;0;True;True;True;True;True;True;True;True;True;False;False;False;True;True;True;True;False;False;False;False;True;False;False;False;True;True;True;True;True;True;True;True;523820;523821;-1;0;3;-1;-1;-1;-1;0;0;-1;-1;-1;-1;32;48;0;0;0;0;0;0;0;0;10421000;10421050;10421007;11100020;10421057;-1;-1;-1;-1;-1;-1;0;1;2;2;0;0;0;0;0;0;-1
4220;[Sorcery] Stars of Ruin;True;0;-1;4090;0;0;38;33;4060;0;-1;-1;-1;1;99;1;1;43;0;10;70;0;0;3;107;0;1;0;0;0;True;True;True;True;True;True;True;True;True;False;False;False;True;True;True;True;False;False;False;False;True;False;False;False;True;True;True;True;True;True;True;True;523900;523901;-1;0;3;-1;-1;-1;-1;1;0;-1;-1;-1;-1;38;43;0;0;15;0;0;0;0;0;10422000;10422050;-1;10000000;10422098;10422099;-1;-1;-1;-1;-1;0;1;0;2;2;0;0;0;0;0;-1
4300;[Sorcery] Glintblade Phalanx;True;0;-1;4040;0;0;20;12;4004;0;-1;-1;-1;1;99;0;1;22;0;10;70;0;0;3;8;0;0;0;0;0;True;True;True;True;True;True;True;True;True;False;False;False;True;True;True;True;False;False;False;False;True;False;False;False;True;True;True;True;True;True;True;True;523040;523041;-1;0;3;-1;-1;-1;-1;0;0;-1;-1;-1;-1;0;0;0;0;3;0;0;0;0;0;10430000;-1;-1;11100000;-1;-1;-1;-1;-1;-1;-1;0;0;0;0;0;0;0;0;0;0;-1
4301;[Sorcery] Carian Phalanx;True;0;-1;4040;0;0;26;16;4004;0;-1;-1;-1;1;99;0;1;34;0;10;70;0;0;3;8;0;0;0;0;0;True;True;True;True;True;True;True;True;True;False;False;False;True;True;True;True;False;False;False;False;True;False;False;False;True;True;True;True;True;True;True;True;523040;523041;-1;0;3;-1;-1;-1;-1;0;0;-1;-1;-1;-1;0;0;0;0;3;0;0;0;0;0;10430100;-1;-1;11100000;-1;-1;-1;-1;-1;-1;-1;0;0;0;0;0;0;0;0;0;0;-1
4302;[Sorcery] Greatblade Phalanx;True;0;-1;4040;0;0;35;20;4004;0;-1;-1;-1;1;99;0;1;29;0;10;70;0;0;3;95;0;0;0;0;0;True;True;True;True;True;True;True;True;True;False;False;False;True;True;True;True;False;False;False;False;True;False;False;False;True;True;True;True;True;True;True;True;523050;523051;-1;0;3;-1;-1;-1;-1;0;0;-1;-1;-1;-1;0;0;0;0;3;0;0;0;0;0;10430200;-1;-1;11100000;-1;-1;-1;-1;-1;-1;-1;0;0;0;0;0;0;0;0;0;0;-1
4360;[Sorcery] Rennala's Full Moon;True;0;-1;4060;0;0;55;32;4104;0;-1;-1;-1;1;99;0;2;70;0;10;70;0;0;3;6;0;0;0;0;0;True;True;True;True;True;True;True;True;True;False;False;False;True;True;True;True;False;False;False;False;False;False;False;False;True;True;True;True;True;True;True;True;523800;523801;523806;0;3;-1;-1;-1;-1;0;0;-1;-1;-1;-1;0;0;0;0;1;0;0;0;0;0;10436000;-1;-1;10000000;-1;-1;-1;-1;-1;-1;-1;0;0;0;0;0;0;0;0;0;0;-1
4361;[Sorcery] Ranni's Dark Moon;True;0;-1;4060;0;0;62;32;4104;0;-1;-1;-1;1;99;0;2;68;0;10;70;0;0;3;6;0;0;0;0;0;True;True;True;True;True;True;True;True;True;False;False;False;True;True;True;True;False;False;False;False;False;False;False;False;True;True;True;True;True;True;True;True;523860;523861;523866;0;3;-1;-1;-1;-1;0;0;-1;-1;-1;-1;0;0;0;0;1;13;0;0;0;0;10436100;-1;-1;10000000;-1;-1;-1;-1;-1;-1;-1;0;0;0;0;0;0;0;0;0;0;-1
4370;[Sorcery] Magic Downpour;True;0;-1;4100;0;0;20;17;4060;0;-1;-1;-1;1;99;1;1;15;0;10;70;0;0;3;107;0;1;0;0;0;True;True;True;True;True;True;True;True;True;False;False;False;True;True;True;True;False;False;False;False;True;False;False;False;True;True;True;True;True;True;True;True;523730;523731;523739;0;3;-1;-1;-1;-1;1;0;-1;-1;-1;-1;20;22;0;0;0;0;0;0;0;0;10437000;10437050;-1;11100000;10437003;10437053;-1;-1;-1;-1;-1;0;1;0;2;2;0;0;0;0;0;-1
4380;[Sorcery] Loretta's Greatbow;True;0;-1;4120;0;0;28;30;4104;0;-1;-1;-1;1;99;1;1;26;0;10;70;0;0;3;5;0;0;0;0;0;True;True;True;True;True;True;True;True;True;False;False;False;True;True;True;True;False;False;False;False;True;False;False;False;True;True;True;True;True;True;True;True;526250;526264;526269;0;3;-1;-1;-1;-1;1;0;-1;-1;-1;-1;28;39;0;1;0;0;0;0;0;0;10438000;10438000;-1;10000200;-1;10438050;10438050;-1;-1;-1;-1;0;0;0;0;1;1;0;0;0;0;-1
4381;[Sorcery] Loretta's Mastery;True;0;-1;4120;0;0;43;33;4104;0;-1;-1;-1;1;99;1;1;46;0;10;70;0;0;3;5;0;0;0;0;0;True;True;True;True;True;True;True;True;True;False;False;False;True;True;True;True;False;False;False;False;True;False;False;False;True;True;True;True;True;True;True;True;526250;526284;526289;0;3;-1;-1;-1;-1;1;0;-1;-1;-1;-1;43;43;0;1;0;0;0;0;0;0;10438100;10438110;-1;10000000;-1;10438150;10438160;-1;-1;-1;-1;0;0;0;0;1;1;0;0;0;0;-1
4390;[Sorcery] Magic Glintblade;True;0;-1;4100;0;0;12;22;4060;0;-1;-1;-1;1;99;1;1;14;0;10;70;0;1;3;118;0;1;0;0;0;True;True;True;True;True;True;True;True;True;False;False;False;True;True;True;True;False;False;False;False;True;False;False;False;True;True;True;True;True;True;True;True;523090;523091;-1;0;3;-1;-1;-1;-1;0;0;-1;-1;-1;-1;12;29;0;0;3;0;0;0;0;0;10439000;10439002;10439050;10000000;10439052;-1;-1;-1;-1;-1;-1;0;2;1;2;0;0;0;0;0;0;-1
4400;[Sorcery] Glintstone Icecrag;True;0;-1;4000;0;0;12;26;4000;0;-1;-1;-1;1;99;0;1;15;0;10;70;0;0;3;1;0;0;0;0;0;True;True;True;True;True;True;True;True;True;False;False;False;True;True;True;True;False;False;False;False;True;False;False;False;True;True;True;True;True;True;True;True;523030;523031;-1;0;3;-1;-1;-1;-1;0;0;-1;-1;-1;-1;0;0;0;0;13;0;0;0;0;0;10440000;-1;-1;10000000;-1;-1;-1;-1;-1;-1;-1;0;0;0;0;0;0;0;0;0;0;-1
4410;[Sorcery] Zamor Ice Storm;True;0;-1;4400;0;0;22;27;4000;0;-1;-1;-1;0;99;0;1;36;0;10;70;0;0;3;14;0;0;0;0;0;True;True;True;True;True;True;True;True;True;False;False;False;True;True;True;True;False;False;False;False;False;False;False;False;True;True;True;True;True;True;True;True;523870;-1;523875;0;3;-1;-1;-1;-1;0;0;-1;-1;-1;-1;22;35;0;0;13;0;0;0;1;1;-1;-1;-1;12000000;-1;-1;-1;-1;-1;10441000;10441050;0;0;0;0;0;0;0;0;0;1;-1
4420;[Sorcery] Freezing Mist;True;0;-1;4000;0;0;20;13;4000;0;-1;-1;-1;1;99;0;1;21;0;10;70;0;0;3;113;0;1;0;0;0;True;True;True;True;True;True;True;True;True;False;False;False;True;True;True;True;False;False;False;False;True;False;False;False;True;True;True;True;True;True;True;True;523880;523881;523875;0;3;-1;-1;-1;-1;0;0;-1;-1;-1;-1;20;17;0;0;13;0;0;0;0;0;10442000;-1;-1;11000000;10442050;-1;-1;-1;-1;-1;-1;0;0;0;1;0;0;0;0;0;0;-1
4430;[Sorcery] Carian Greatsword;True;0;-1;4200;0;0;14;22;4061;0;-1;-1;-1;0;99;0;1;24;0;10;70;0;0;3;9;0;0;0;0;0;True;True;True;True;True;True;True;True;True;False;False;False;True;True;True;True;False;False;False;False;True;False;False;False;True;True;True;True;True;True;True;True;523740;523741;523742;0;3;-1;-1;-1;-1;0;0;-1;-1;-1;-1;0;0;0;0;2;0;0;0;0;0;44300;44301;44305;12000000;44306;44307;44308;-1;-1;-1;-1;0;0;0;0;0;0;0;0;0;0;-1
4431;[Sorcery] Adula's Moonblade;True;0;-1;4000;0;0;26;22;4000;0;-1;-1;-1;0;99;0;1;32;0;10;70;0;0;3;9;0;0;0;0;0;True;True;True;True;True;True;True;True;True;False;False;False;True;True;True;True;False;False;False;False;True;False;False;False;True;True;True;True;True;True;True;True;523890;523891;523892;0;3;-1;-1;-1;-1;0;0;-1;-1;-1;-1;0;0;0;0;2;13;1;1;1;1;44310;44311;44315;12000000;44316;44317;44318;10443100;10443110;10443120;10443130;0;0;0;0;0;0;2;2;2;2;-1
4440;[Sorcery] Carian Slicer;True;0;-1;4210;0;0;4;12;4102;0;-1;-1;-1;0;99;0;1;14;0;10;70;0;0;3;80;0;0;0;0;0;True;True;True;True;True;True;True;True;True;False;False;False;True;True;True;True;False;False;False;False;True;False;False;False;True;True;True;True;True;True;True;True;523750;523751;523752;0;3;-1;-1;-1;-1;0;0;-1;-1;-1;-1;0;0;0;0;2;0;0;0;0;0;44400;44401;44405;12000130;44406;44407;44408;-1;-1;-1;-1;0;0;0;0;0;0;0;0;0;0;-1
[...]
53750;;True;0;-1;4040;0;0;1;1;4004;0;-1;-1;-1;1;99;0;0;0;0;1;20;0;0;3;8;0;0;0;0;0;True;True;True;True;True;True;True;True;True;False;False;False;True;True;True;True;False;False;False;False;True;False;False;False;True;True;True;True;True;True;True;True;523040;523041;-1;0;3;-1;-1;-1;-1;0;0;-1;-1;-1;-1;1;1;0;0;3;0;0;0;0;0;10430100;-1;-1;10000000;-1;-1;-1;-1;-1;-1;-1;0;0;0;0;0;0;0;0;0;0;-1
53751;;True;0;-1;4100;0;0;1;1;4060;0;-1;-1;-1;1;99;1;0;0;0;1;20;0;1;3;118;0;1;0;0;0;True;True;True;True;True;True;True;True;True;False;False;False;True;True;True;True;False;False;False;False;True;False;False;False;True;True;True;True;True;True;True;True;523090;523091;-1;0;3;-1;-1;-1;-1;0;0;-1;-1;-1;-1;1;1;0;0;3;0;0;0;0;0;10439000;10439002;10439050;10000000;10439052;-1;-1;-1;-1;-1;-1;0;1;0;2;0;0;0;0;0;0;-1
53760;;True;0;-1;4000;0;0;1;1;4000;0;-1;-1;-1;1;99;1;0;0;0;1;20;0;0;3;121;0;0;0;0;0;True;True;True;True;True;True;True;True;True;False;False;False;True;True;True;True;False;False;False;False;False;False;False;False;True;True;True;True;True;True;True;True;-1;-1;-1;0;3;-1;-1;-1;-1;0;0;-1;-1;-1;-1;1;1;0;0;10;0;0;0;0;0;10503000;10503010;-1;10000000;-1;-1;-1;-1;-1;-1;-1;0;2;0;0;0;0;0;0;0;0;-1
53770;;True;0;-1;4000;0;0;1;1;4000;0;-1;-1;-1;1;99;0;0;0;0;1;20;1;0;4;26;0;0;0;0;0;True;True;True;True;True;True;True;True;True;False;False;False;True;True;True;True;False;False;False;False;True;False;False;False;True;True;True;True;True;True;True;True;525540;-1;-1;0;0;-1;-1;-1;-1;0;0;-1;-1;-1;-1;1;1;0;0;0;0;0;0;0;0;10721000;-1;-1;11000000;-1;-1;-1;-1;-1;-1;-1;0;0;0;0;0;0;0;0;0;0;-1
53800;;True;0;-1;4070;0;0;1;1;4000;0;-1;-1;-1;1;99;1;0;0;0;1;20;0;1;3;113;0;1;0;0;0;True;True;True;True;True;True;True;True;True;False;False;False;True;True;True;True;False;False;False;False;True;False;False;False;True;True;True;True;True;True;True;True;523000;523001;-1;0;3;-1;-1;-1;-1;1;0;-1;-1;-1;-1;1;1;0;1;0;0;0;0;0;0;10409000;10409001;10409002;11000020;10409050;10409051;10409052;-1;-1;-1;-1;0;2;2;1;2;2;0;0;0;0;-1
53801;;True;0;-1;4090;0;0;1;1;4060;0;-1;-1;-1;1;99;1;0;0;0;1;20;0;0;3;107;0;0;0;0;0;True;True;True;True;True;True;True;True;True;False;False;False;True;True;True;True;False;False;False;False;True;False;False;False;True;True;True;True;True;True;True;True;523900;523901;-1;0;3;-1;-1;-1;-1;0;0;-1;-1;-1;-1;1;1;0;0;15;0;0;0;0;0;10422000;10422050;-1;10000000;-1;-1;-1;-1;-1;-1;-1;0;1;0;0;0;0;0;0;0;0;-1
53802;;True;0;-1;4000;0;0;1;1;4000;0;-1;-1;-1;1;99;0;0;0;0;1;20;0;0;3;83;0;0;0;0;0;True;True;True;True;True;True;True;True;True;False;False;False;True;True;True;True;False;False;False;False;True;False;False;False;True;True;True;True;True;True;True;True;-1;-1;-1;0;3;-1;-1;-1;-1;0;0;-1;-1;-1;-1;1;1;0;0;3;0;0;0;0;0;10460000;-1;-1;10000100;-1;-1;-1;-1;-1;-1;-1;0;0;0;0;0;0;0;0;0;0;-1
53803;;True;0;-1;4020;0;0;1;1;4006;0;-1;-1;-1;1;99;1;0;0;0;1;20;0;0;3;2;0;0;0;0;0;True;True;True;True;True;True;True;True;True;False;False;False;True;True;True;True;False;False;False;False;True;False;False;False;True;True;True;True;True;True;True;True;523200;523201;523204;0;3;-1;-1;-1;-1;0;0;-1;-1;-1;-1;1;1;0;0;12;0;0;0;0;0;10462000;10462050;-1;11000120;-1;-1;-1;-1;-1;-1;-1;0;1;0;0;0;0;0;0;0;0;-1
53804;;True;0;-1;4000;0;0;1;1;4000;0;-1;-1;-1;1;99;0;0;0;0;1;20;0;0;3;83;0;0;0;0;0;True;True;True;True;True;True;True;True;True;False;False;False;True;True;True;True;False;False;False;False;True;False;False;False;True;True;True;True;True;True;True;True;-1;-1;-1;0;3;-1;-1;-1;-1;0;0;-1;-1;-1;-1;1;1;0;0;3;0;0;0;0;0;10460000;-1;-1;10000100;-1;-1;-1;-1;-1;-1;-1;0;0;0;0;0;0;0;0;0;0;-1
53805;;True;0;-1;4020;0;0;1;1;4006;0;-1;-1;-1;1;99;1;0;0;0;1;20;0;0;3;2;0;0;0;0;0;True;True;True;True;True;True;True;True;True;False;False;False;True;True;True;True;False;False;False;False;True;False;False;False;True;True;True;True;True;True;True;True;523200;523201;523204;0;3;-1;-1;-1;-1;0;0;-1;-1;-1;-1;1;1;0;0;12;0;0;0;0;0;10462000;10462050;-1;10000200;-1;-1;-1;-1;-1;-1;-1;0;1;0;0;0;0;0;0;0;0;-1
53820;;True;0;-1;5000;0;0;1;1;4027;0;-1;-1;-1;1;99;1;0;0;0;1;20;1;1;4;106;0;1;0;0;0;True;True;True;True;True;True;True;True;True;False;False;False;True;True;True;True;False;False;False;False;True;False;False;False;True;True;True;True;True;True;True;True;524100;-1;-1;0;0;-1;-1;-1;-1;0;0;-1;-1;-1;-1;1;1;0;0;21;0;0;0;0;0;10600000;10600001;10600002;12000130;10600005;-1;-1;-1;-1;-1;-1;0;0;0;0;0;0;0;0;0;0;-1
53821;;True;0;-1;5130;0;0;1;1;4024;0;-1;-1;-1;1;99;1;0;0;0;1;20;1;1;4;24;0;1;0;0;0;True;True;True;True;True;True;True;True;True;False;False;False;True;True;True;True;False;False;False;False;False;False;False;False;True;True;True;True;True;True;True;True;524030;524031;524035;0;0;-1;-1;-1;-1;1;0;-1;-1;-1;-1;1;1;0;1;21;0;1;1;0;0;10612000;10612005;10612006;11000000;10612050;10612055;10612056;10999999;10999999;-1;-1;2;2;2;2;2;2;0;1;0;0;-1
53822;;True;0;-1;5100;0;0;1;1;4088;0;-1;-1;-1;1;99;0;0;0;0;1;20;1;0;4;23;0;0;0;0;0;True;True;True;True;True;True;True;True;True;False;False;False;True;True;True;True;False;False;False;False;True;False;False;False;True;True;True;True;True;True;True;True;524050;-1;-1;0;0;-1;-1;-1;-1;0;0;-1;-1;-1;-1;1;1;0;0;21;0;0;0;0;0;10622000;-1;-1;11000200;-1;-1;-1;-1;-1;-1;-1;0;0;0;0;0;0;0;0;0;0;-1
53830;;True;0;-1;5110;0;0;1;1;4110;0;-1;-1;-1;1;99;1;0;0;0;1;20;1;1;4;20;0;1;0;0;0;True;True;True;True;True;True;True;True;True;False;False;False;True;True;True;True;False;False;False;False;True;False;False;False;True;True;True;True;True;True;True;True;524520;524521;-1;0;0;-1;-1;-1;-1;0;0;-1;-1;-1;-1;1;1;0;0;21;0;0;0;0;0;10603000;10603050;10999999;11000200;10999999;-1;-1;-1;-1;-1;-1;2;2;0;1;0;0;0;0;0;0;-1
53850;;True;0;-1;4000;0;0;1;1;4000;0;-1;-1;-1;1;99;0;0;0;0;1;20;0;0;3;1;0;0;0;0;0;True;True;True;True;True;True;True;True;True;False;False;False;True;True;True;True;False;False;False;False;True;False;False;False;True;True;True;True;True;True;True;True;523030;523031;-1;0;3;-1;-1;-1;-1;0;0;-1;-1;-1;-1;1;1;0;0;0;0;0;0;0;0;10440000;-1;-1;10000100;-1;-1;-1;-1;-1;-1;-1;0;0;0;0;0;0;0;0;0;0;-1
53851;;True;0;-1;4000;0;0;1;1;4000;0;-1;-1;-1;1;99;0;0;0;0;1;20;0;0;3;113;0;1;0;0;0;True;True;True;True;True;True;True;True;True;False;False;False;True;True;True;True;False;False;False;False;True;False;False;False;True;True;True;True;True;True;True;True;523880;523881;523875;0;3;-1;-1;-1;-1;0;0;-1;-1;-1;-1;1;1;0;0;0;0;0;0;0;0;10442000;-1;-1;11000000;10442050;-1;-1;-1;-1;-1;-1;0;0;0;1;0;0;0;0;0;0;-1
53852;;True;0;-1;4200;0;0;1;1;4000;0;-1;-1;-1;1;99;1;0;0;0;1;20;0;1;3;81;0;0;0;0;0;True;True;True;True;True;True;True;True;True;False;False;False;True;True;True;True;False;False;False;False;False;False;False;False;True;True;True;True;True;True;True;True;-1;-1;-1;0;3;-1;-1;-1;-1;0;0;-1;-1;-1;-1;1;1;0;0;9;0;0;0;0;0;10490090;10490091;10490092;12000000;-1;-1;-1;-1;-1;-1;-1;0;0;0;0;0;0;0;0;0;0;-1
53860;;True;0;-1;5340;0;0;1;1;4021;0;-1;-1;-1;1;99;0;0;0;0;1;20;1;0;4;94;0;0;0;0;0;True;True;True;True;True;True;True;True;True;False;False;False;True;True;True;True;False;False;False;False;False;False;False;False;True;True;True;True;True;True;True;True;-1;-1;-1;0;0;-1;-1;-1;-1;0;0;-1;-1;-1;-1;1;1;0;0;0;0;0;0;0;0;10630000;-1;-1;12000130;-1;-1;-1;-1;-1;-1;-1;0;0;0;0;0;0;0;0;0;0;-1
53861;;True;0;-1;4000;0;0;1;1;4000;0;-1;-1;-1;1;99;0;0;0;0;1;20;1;0;4;26;0;0;0;0;0;True;True;True;True;True;True;True;True;True;False;False;False;True;True;True;True;False;False;False;False;True;False;False;False;True;True;True;True;True;True;True;True;525540;-1;-1;0;3;-1;-1;-1;-1;0;0;-1;-1;-1;-1;1;1;0;0;0;0;0;0;0;0;10721000;-1;-1;11000000;-1;-1;-1;-1;-1;-1;-1;0;0;0;0;0;0;0;0;0;0;-1
53900;;True;0;-1;4000;0;0;1;1;4000;0;-1;-1;-1;1;99;1;0;0;0;1;20;1;1;4;74;0;1;0;0;0;True;True;True;True;True;True;True;True;True;False;False;False;True;True;True;True;False;False;False;False;True;False;False;False;True;True;True;True;True;True;True;True;-1;-1;-1;0;0;-1;-1;-1;-1;1;0;-1;-1;-1;-1;1;1;0;1;0;0;0;0;0;0;10720000;10720001;10720002;10000000;10720003;10720004;10720005;-1;-1;-1;-1;0;2;2;2;2;2;0;0;0;0;-1
999999999;;True;0;-1;4000;0;0;7;0;4000;0;-1;-1;-1;1;99;0;1;0;0;10;50;1;0;4;34;0;0;0;0;0;True;True;True;True;True;True;True;True;True;False;False;False;True;True;True;True;False;False;False;False;True;False;False;False;True;True;True;True;True;True;True;True;524860;524861;524844;0;3;-1;-1;-1;-1;0;0;-1;-1;-1;-1;0;0;0;0;0;0;0;0;0;0;10790300;-1;-1;-1;-1;-1;-1;-1;-1;-1;-1;0;0;0;0;0;0;0;0;0;0;-1